Date and Time:                Sun Apr 14 16:14:23.033 2024
Software Version:             4.30.30000.0
Temperature (C):              -90
Model:                        DU971P_UVB
Data Type:                    Counts
Acquisition Mode:             Single Scan
Trigger Mode:                 Internal
Exposure Time (secs):         1
Readout Mode:                 Full Vertical Binning
Horizontal binning:           1
Extended Dynamic Range:       off
Horizontally flipped:         false
Vertical Shift Speed (usecs): 9.68
Pixel Readout Rate (MHz):     3
Baseline Clamp:               ON
Clock Amplitude:              Normal
Output Amplifier:             Conventional
Serial Number:                20367
Pre-Amplifier Gain:           4x
Spurious Noise Filter Mode:   No Filter
Photon counted:               false
Data Averaging Filter Mode:   No Filter
SR193i:
Serial Number:                SR-2646
Wavelength (nm):              650
Grating Groove Density (l/mm):300
Grating Blaze:                500nm
Input Side Slit Width (um):   1000



437.86981	12895
438.12854	13534
438.3873	14265
438.64606	15080
438.90482	15754
439.16354	16502
439.4223	17129
439.68103	17812
439.93979	18459
440.19852	19284
440.45724	20044
440.716	20380
440.97473	21034
441.23346	21798
441.49219	22900
441.75092	23361
442.00964	23805
442.26837	24447
442.5271	25317
442.78583	25972
443.04456	26433
443.30325	26787
443.56198	27882
443.82068	28237
444.07941	28950
444.3381	29699
444.59683	29899
444.85553	31094
445.11423	31449
445.37292	31952
445.63165	32530
445.89035	32934
446.14905	33555
446.40771	33493
446.66641	34281
446.92511	34758
447.18381	35458
447.4425	36261
447.70117	36533
447.95987	36693
448.21854	37253
448.47723	37864
448.7359	38072
448.99457	38465
449.25327	39079
449.51193	38924
449.7706	39041
450.02927	39120
450.28793	39249
450.5466	39451
450.80527	38410
451.0639	37386
451.32257	36759
451.58124	35853
451.83987	35032
452.09854	34170
452.35718	33787
452.61584	33078
452.87448	32637
453.13312	31824
453.39175	31444
453.65042	30731
453.90906	30294
454.16769	29961
454.42633	29672
454.68494	29129
454.94357	28667
455.20221	28130
455.46082	27595
455.71945	27556
455.97809	27365
456.23669	26915
456.4953	26557
456.75394	25994
457.01254	25854
457.27115	25410
457.52975	25709
457.78836	25039
458.04697	24945
458.30557	24831
458.56418	24680
458.82275	24684
459.08136	24500
459.33997	24110
459.59854	23887
459.85715	24073
460.11572	23691
460.3743	23824
460.6329	23777
460.89148	23511
461.15005	23605
461.40863	23554
461.66721	23748
461.92578	23544
462.18433	23613
462.4429	23738
462.70148	23617
462.96002	23780
463.2186	23567
463.47714	23795
463.73572	23827
463.99426	23997
464.25281	24109
464.51135	24321
464.7699	24038
465.02844	24326
465.28699	24397
465.54553	24443
465.80408	24844
466.06259	24369
466.32114	24941
466.57968	25059
466.8382	24981
467.09671	25080
467.35526	25604
467.61377	25785
467.87228	25828
468.1308	26140
468.38931	26208
468.64783	26224
468.90634	26443
469.16486	26329
469.42334	27175
469.68185	26852
469.94034	27355
470.19885	27476
470.45734	27372
470.71582	28107
470.97433	28207
471.23282	28417
471.4913	28347
471.74979	28701
472.00827	28729
472.26672	28916
472.52521	29488
472.78369	29487
473.04214	29417
473.30063	29583
473.55908	29852
473.81757	29868
474.07602	30527
474.33447	30269
474.59293	30256
474.85138	30737
475.10983	30937
475.36829	31090
475.62674	31070
475.88516	31035
476.14362	31379
476.40204	31596
476.66049	31503
476.91891	31923
477.17734	31948
477.43579	32353
477.69421	32103
477.95264	32249
478.21106	32544
478.46945	32290
478.72787	32080
478.9863	32628
479.24469	32553
479.50311	32888
479.76151	32700
480.01993	33049
480.27832	32939
480.53671	33105
480.7951	33036
481.0535	32914
481.31189	33491
481.57028	33608
481.82867	33282
482.08704	33477
482.34543	33721
482.60379	33527
482.86218	33781
483.12054	33230
483.37891	33641
483.63727	33385
483.89563	33320
484.15399	33327
484.41235	33433
484.67072	33245
484.92908	33557
485.18741	33339
485.44577	33667
485.7041	33627
485.96243	33756
486.22079	33673
486.47913	33802
486.73746	33567
486.99579	33477
487.25412	33573
487.51242	33735
487.77075	33418
488.02908	33698
488.28738	33716
488.54572	33669
488.80402	33706
489.06232	33940
489.32062	33598
489.57892	33531
489.83722	33815
490.09552	34017
490.35382	33598
490.61212	33725
490.87039	33907
491.12869	33510
491.38696	33781
491.64526	33739
491.90353	33589
492.1618	33600
492.42007	33552
492.67834	33596
492.93661	33516
493.19489	33780
493.45313	33811
493.7114	33300
493.96964	33333
494.22791	33682
494.48615	33848
494.74438	33814
495.00262	33543
495.26086	33619
495.5191	33576
495.77734	33562
496.03558	33615
496.29379	33635
496.55203	33614
496.81024	33698
497.06848	33682
497.32669	33480
497.5849	33632
497.84311	33582
498.10132	33633
498.35953	33794
498.61771	33573
498.87592	33608
499.13412	33693
499.3923	33528
499.65048	33866
499.90869	33570
500.16687	33531
500.42505	33182
500.68323	33438
500.94141	33550
501.19958	33485
501.45773	33345
501.71591	33181
501.97406	33028
502.23224	33433
502.49039	33153
502.74854	33012
503.00668	33174
503.26483	33002
503.52298	33303
503.78113	33247
504.03925	33440
504.29739	33159
504.55551	33213
504.81366	32903
505.07178	33104
505.3299	33043
505.58801	33017
505.84613	32737
506.10425	32616
506.36237	33100
506.62045	32968
506.87857	32973
507.13666	32503
507.39478	33132
507.65286	33353
507.91095	32741
508.16904	32694
508.42712	33379
508.68521	32596
508.94327	32717
509.20135	32651
509.45941	32488
509.7175	32502
509.97556	32499
510.23361	32495
510.49167	32477
510.74973	32421
511.00778	32500
511.26584	32536
511.5239	32363
511.78192	32595
512.03998	32296
512.29797	32248
512.55603	32097
512.81409	32094
513.07208	32410
513.33014	32193
513.58813	32045
513.84613	31923
514.10419	31981
514.36218	32037
514.62018	31642
514.87817	31948
515.13617	31760
515.39417	31551
515.65216	31629
515.91016	31672
516.16815	31334
516.42615	31667
516.68408	31682
516.94208	31344
517.20007	31320
517.45801	31023
517.716	30941
517.97394	31048
518.23193	31169
518.48987	30926
518.7478	31030
519.0058	30769
519.26373	30773
519.52167	30693
519.7796	31112
520.03754	30803
520.29547	30542
520.55341	30581
520.81134	30411
521.06927	30484
521.32715	30282
521.58508	30536
521.84302	29938
522.10089	30533
522.35883	29871
522.6167	29965
522.87463	29786
523.13251	30029
523.39038	29531
523.64825	30036
523.90619	29957
524.16406	30152
524.42194	29908
524.67981	29591
524.93768	29566
525.19556	29620
525.45337	29689
525.71124	29241
525.96912	29668
526.22699	29160
526.4848	28998
526.74268	29167
527.00049	29021
527.25836	28930
527.51617	28529
527.77399	28627
528.0318	28564
528.28967	28679
528.54749	28925
528.8053	28708
529.06311	28563
529.32092	28043
529.57874	28108
529.83655	28125
530.0943	28021
530.35211	27985
530.60992	27682
530.86768	28027
531.12549	27690
531.38324	28279
531.64105	27958
531.8988	27612
532.15656	27492
532.41437	27512
532.67212	27167
532.92987	27495
533.18762	27111
533.44537	26934
533.70313	26890
533.96088	26998
534.21857	27006
534.47632	26739
534.73407	27177
534.99182	26703
535.24951	27005
535.50726	26677
535.76495	26619
536.02264	26671
536.2804	26494
536.53809	26496
536.79578	26190
537.05347	26500
537.31116	26121
537.56885	26161
537.82654	26126
538.08423	25988
538.34192	25789
538.59961	25904
538.85724	25945
539.11493	25809
539.37262	25847
539.63025	25603
539.88794	25643
540.14557	25227
540.4032	25002
540.66089	25288
540.91852	25136
541.17615	25301
541.43378	25153
541.69141	25063
541.94904	24944
542.20667	25205
542.46429	24662
542.72186	24700
542.97949	24875
543.23712	24780
543.49469	24519
543.75232	24527
544.00989	24355
544.26752	24387
544.52509	24137
544.78265	24282
545.04022	24253
545.29779	23924
545.55542	24171
545.81293	24092
546.0705	23906
546.32806	23796
546.58563	23859
546.8432	23670
547.10071	23937
547.35828	23690
547.61584	23723
547.87335	23186
548.13086	23367
548.38843	23316
548.64594	23538
548.90344	23356
549.16095	23385
549.41846	23126
549.67596	23125
549.93347	22834
550.19098	23142
550.44849	22859
550.70599	23099
550.96344	22980
551.22095	22793
551.47845	22768
551.7359	22656
551.99335	22888
552.25085	22771
552.5083	22791
552.76575	22472
553.02319	22497
553.28064	22388
553.53809	22471
553.79553	22566
554.05298	22603
554.31042	22506
554.56787	22485
554.82526	22389
555.0827	22125
555.34015	22155
555.59753	22252
555.85492	22086
556.11237	21969
556.36975	22333
556.62714	22003
556.88452	22231
557.14191	21886
557.39929	22233
557.65668	21928
557.91406	21888
558.17145	22000
558.42883	21708
558.68616	21851
558.94354	21855
559.20087	21866
559.45825	21948
559.71558	21838
559.9729	21682
560.23029	21658
560.48761	21767
560.74493	21810
561.00226	21653
561.25958	21946
561.51691	21590
561.77423	21662
562.03149	21546
562.28882	21456
562.54614	21716
562.80341	21183
563.06067	21065
563.31799	21270
563.57526	21114
563.83252	21328
564.08984	21437
564.34711	21494
564.60437	21278
564.86163	21264
565.1189	21089
565.3761	20838
565.63336	21090
565.89063	21307
566.14783	21126
566.40509	20976
566.66229	21078
566.91956	21027
567.17676	21099
567.43396	20856
567.69116	20831
567.94843	20800
568.20563	20906
568.46283	20640
568.71997	20825
568.97717	21153
569.23438	20766
569.49158	20772
569.74872	20566
570.00592	20372
570.26306	20793
570.52026	20630
570.7774	20566
571.03455	20566
571.29169	20639
571.54883	20391
571.80597	20336
572.06311	20558
572.32025	20523
572.57739	20406
572.83453	20216
573.09161	20263
573.34875	19992
573.60583	20131
573.86298	20100
574.12006	20302
574.37714	20262
574.63422	20008
574.89136	20198
575.14844	19912
575.40552	19893
575.6626	20122
575.91962	19786
576.1767	19850
576.43378	19853
576.6908	19579
576.94788	19674
577.2049	19629
577.46198	19794
577.71899	19798
577.97601	19684
578.23303	19698
578.49005	19433
578.74707	19825
579.00409	19365
579.26111	19334
579.51813	19631
579.77515	19488
580.0321	19485
580.28912	19138
580.54608	18785
580.8031	18998
581.06006	19052
581.31702	19265
581.57397	19021
581.83093	19206
582.08789	18948
582.34485	18811
582.60181	18846
582.85876	18946
583.11566	18765
583.37262	18791
583.62958	18511
583.88647	18824
584.14337	18451
584.40033	18379
584.65723	18475
584.91412	18481
585.17102	18366
585.42792	18457
585.68481	18448
585.94171	18315
586.19861	18321
586.45544	18133
586.71234	18241
586.96918	18142
587.22607	17945
587.48291	17974
587.73981	17910
587.99664	17731
588.25348	17859
588.51031	17747
588.76715	17818
589.02399	17600
589.28082	17460
589.5376	17333
589.79443	17734
590.05127	17449
590.30804	17254
590.56482	17338
590.82166	17352
591.07843	17431
591.33521	17082
591.59198	17050
591.84875	16979
592.10553	16745
592.3623	16973
592.61908	16899
592.87579	16605
593.13257	16846
593.38934	16893
593.64606	16702
593.90277	16336
594.15955	16612
594.41626	16567
594.67297	16250
594.92969	16483
595.1864	16514
595.44312	16412
595.69983	16150
595.95648	16202
596.2132	16100
596.46991	16029
596.72656	16238
596.98322	15944
597.23993	15957
597.49658	16106
597.75323	15780
598.00989	15855
598.26654	15368
598.52319	15893
598.77985	15715
599.0365	15650
599.29309	15590
599.54974	15251
599.80634	15503
600.06299	15462
600.31958	15375
600.57617	15425
600.83276	15248
601.08936	15281
601.34595	15002
601.60254	15061
601.85913	15130
602.11572	15213
602.37225	14940
602.62885	14971
602.88544	14916
603.14197	14760
603.3985	14920
603.65503	14952
603.91162	14744
604.16815	14752
604.42468	14694
604.68121	14599
604.93768	14488
605.19421	14609
605.45074	14346
605.70721	14321
605.96375	14175
606.22021	14370
606.47668	14387
606.73322	14167
606.98969	14142
607.24615	14080
607.50262	14319
607.75909	13990
608.0155	13798
608.27197	13916
608.52844	14128
608.78485	14094
609.04132	13783
609.29773	13741
609.55414	13751
609.81055	13913
610.06696	13591
610.32336	13560
610.57977	13394
610.83618	13546
611.09259	13559
611.349	13532
611.60535	13483
611.86176	13261
612.1181	13377
612.37445	13331
612.63086	13441
612.88721	13360
613.14355	13167
613.3999	13164
613.65625	13082
613.91254	13258
614.16888	12994
614.42523	13025
614.68152	13037
614.93787	12907
615.19415	13018
615.45044	12949
615.70673	12823
615.96307	12847
616.21936	12971
616.47559	13029
616.73187	12711
616.98816	12569
617.24445	12740
617.50067	12482
617.75696	12455
618.01318	12556
618.26941	12539
618.5257	12434
618.78192	12121
619.03815	12397
619.29437	12373
619.55054	12175
619.80676	12137
620.06299	12126
620.31915	12388
620.57538	12144
620.83154	11967
621.08777	12122
621.34393	12170
621.6001	11881
621.85626	11804
622.11243	11943
622.36859	11974
622.62469	11437
622.88086	11851
623.13702	11669
623.39313	11456
623.64929	11447
623.9054	11460
624.1615	11422
624.4176	11604
624.67371	11475
624.92981	11330
625.18591	11714
625.44202	11266
625.69806	11348
625.95416	11275
626.21021	11273
626.46631	11092
626.72235	11170
626.97839	11048
627.23444	10985
627.49048	11180
627.74652	10790
628.00256	11105
628.25861	10882
628.51465	10944
628.77063	10780
629.02667	10786
629.28265	10692
629.53864	10771
629.79462	10713
630.0506	10798
630.30658	10577
630.56256	10457
630.81854	10417
631.07452	10585
631.33044	10526
631.58643	10345
631.84235	10373
632.09833	10275
632.35425	10196
632.61017	10197
632.86609	10234
633.12201	10077
633.37793	10068
633.63385	9854
633.88977	9988
634.14563	10152
634.40155	9844
634.65741	9739
634.91327	9701
635.16919	9682
635.42505	9675
635.68091	9612
635.93677	9625
636.19257	9688
636.44843	9485
636.70428	9437
636.96008	9529
637.21594	9595
637.47174	9573
637.72754	9304
637.9834	9361
638.2392	9428
638.495	9115
638.75073	9239
639.00653	9230
639.26233	8980
639.51807	9051
639.77386	9008
640.0296	9008
640.2854	8878
640.54114	8983
640.79688	8907
641.05261	8925
641.30835	8843
641.56409	8789
641.81976	8779
642.0755	8588
642.33118	8634
642.58691	8679
642.84259	8362
643.09827	8547
643.354	8691
643.60968	8448
643.86536	8530
644.12097	8450
644.37665	8436
644.63232	8237
644.88794	8387
645.14362	8269
645.39923	8100
645.65485	8169
645.91046	8157
646.16608	8261
646.42169	8081
646.67731	7923
646.93292	8005
647.18854	8041
647.44409	7935
647.69971	7848
647.95526	7880
648.21082	7746
648.46637	7974
648.72192	7600
648.97748	7704
649.23303	7649
649.48859	7469
649.74414	7672
649.99963	7373
650.25519	7586
650.51068	7403
650.76617	7532
651.02167	7548
651.27722	7446
651.53265	7383
651.78815	7270
652.04364	7319
652.29913	7126
652.55457	7174
652.81006	7148
653.06549	7215
653.32092	7136
653.57635	7222
653.83185	7227
654.08722	6969
654.34265	6795
654.59808	6942
654.85352	7140
655.10889	6821
655.36432	7071
655.61969	6848
655.87506	6763
656.13043	6728
656.3858	6761
656.64117	6633
656.89655	6695
657.15192	6634
657.40729	6643
657.6626	6517
657.91791	6649
658.17328	6612
658.42859	6457
658.6839	6350
658.93921	6457
659.19452	6382
659.44983	6386
659.70508	6345
659.96039	6422
660.2157	6210
660.47095	6384
660.7262	6245
660.98145	6286
661.23669	6060
661.49194	6110
661.74719	6184
662.00244	5890
662.25769	5980
662.51288	6009
662.76813	5981
663.02332	6081
663.2785	5847
663.53369	5939
663.78894	5812
664.04407	5858
664.29926	5876
664.55444	5874
664.80963	5865
665.06476	5626
665.31995	5674
665.57507	5676
665.8302	5686
666.08533	5570
666.34045	5683
666.59558	5628
666.85071	5539
667.10577	5491
667.3609	5654
667.61597	5476
667.87109	5498
668.12616	5337
668.38123	5605
668.63629	5520
668.89136	5242
669.14642	5375
669.40149	5218
669.65649	5266
669.91156	5232
670.16656	5267
670.42157	5103
670.67664	5339
670.93164	5206
671.18665	5173
671.44159	5102
671.69659	5006
671.9516	5107
672.20654	4926
672.46155	4958
672.71649	4937
672.97144	4986
673.22638	4978
673.48132	4940
673.73627	4914
673.99121	4859
674.24615	4882
674.50104	4764
674.75598	4710
675.01086	4729
675.26575	4791
675.52063	4829
675.77551	4721
676.0304	4682
676.28528	4678
676.54016	4573
676.79498	4761
677.04987	4670
677.30469	4694
677.55957	4587
677.81439	4607
678.06921	4503
678.32404	4589
678.5788	4440
678.83362	4470
679.08844	4507
679.3432	4338
679.59802	4331
679.85278	4475
680.10754	4403
680.3623	4336
680.61707	4266
680.87183	4439
681.12659	4436
681.38129	4196
681.63605	4121
681.89075	4276
682.14545	4164
682.40021	4134
682.65491	4302
682.90961	4104
683.16425	4140
683.41895	4067
683.67365	4033
683.92828	4019
684.18298	4008
684.43762	3982
684.69226	3995
684.9469	3963
685.20154	3978
685.45618	3907
685.71082	3934
685.96539	3902
686.22003	3818
686.47461	3942
686.72919	3784
686.98376	3935
687.23834	3739
687.49292	3810
687.7475	3787
688.00208	3831
688.25659	3749
688.51117	3820
688.76569	3711
689.02026	3655
689.27478	3628
689.5293	3691
689.78381	3640
690.03827	3612
690.29279	3616
690.5473	3591
690.80176	3673
691.05621	3585
691.31073	3597
691.56519	3578
691.81964	3625
692.0741	3410
692.32849	3563
692.58295	3532
692.8374	3502
693.0918	3414
693.34619	3450
693.60065	3467
693.85504	3378
694.10944	3309
694.36377	3386
694.61816	3199
694.87256	3348
695.12689	3329
695.38129	3175
695.63562	3285
695.88995	3231
696.14429	3172
696.39862	3258
696.65295	3235
696.90729	3232
697.16156	3201
697.41589	3152
697.67017	3260
697.92444	3167
698.17871	3128
698.43298	3039
698.68726	3117
698.94153	3123
699.1958	3073
699.45001	3087
699.70428	3017
699.9585	3039
700.21271	3099
700.46692	3021
700.72113	2977
700.97534	2896
701.22955	2984
701.4837	2949
701.73792	2888
701.99207	2832
702.24622	2828
702.50037	2925
702.75452	2889
703.00867	2869
703.26282	2779
703.51697	2864
703.77106	2800
704.02521	2796
704.2793	2679
704.53339	2779
704.78748	2669
705.04156	2732
705.29565	2704
705.54974	2743
705.80377	2676
706.05786	2583
706.31189	2640
706.56592	2653
706.81995	2614
707.07397	2624
707.328	2697
707.58203	2458
707.83606	2510
708.09003	2677
708.34406	2471
708.59802	2561
708.85199	2542
709.10596	2445
709.35992	2414
709.61389	2497
709.8678	2435
710.12177	2380
710.37567	2476
710.62964	2449
710.88354	2369
711.13745	2389
711.39136	2355
711.64526	2352
711.89917	2400
712.15302	2361
712.40692	2373
712.66077	2339
712.91461	2251
713.16846	2230
713.4223	2298
713.67615	2282
713.92999	2257
714.18378	2306
714.43762	2333
714.69141	2217
714.94525	2154
715.19904	2220
715.45282	2248
715.7066	2234
715.96033	2198
716.21411	2079
716.46783	2129
716.72162	2075
716.97534	2092
717.22906	2123
717.48279	2187
717.73651	2189
717.99023	2112
718.24396	2137
718.49762	2177
718.75134	2142
719.005	2003
719.25867	2142
719.51233	2099
719.76599	2073
720.01965	2027
720.27325	2076
720.52692	1992
720.78052	1995
721.03418	1865
721.28778	2011
721.54138	1991
721.79498	1892
722.04858	2003
722.30212	1909
722.55573	1979
722.80927	1928
723.06281	1999
723.31641	1943
723.56995	1883
723.82349	2005
724.07697	1916
724.33051	1896
724.58405	1912
724.83752	1911
725.091	1901
725.34454	1805
725.59802	1915
725.85144	1806
726.10492	1854
726.3584	1833
726.61182	1815
726.8653	1838
727.11871	1883
727.37213	1822
727.62555	1742
727.87897	1823
728.13239	1817
728.3858	1805
728.63916	1707
728.89258	1798
729.14594	1791
729.39929	1613
729.65265	1770
729.90601	1701
730.15936	1688
730.41266	1666
730.66602	1733
730.91931	1658
731.17267	1646
731.42596	1728
731.67926	1660
731.93256	1757
732.18579	1623
732.43909	1630
732.69232	1618
732.94562	1629
733.19885	1536
733.45209	1583
733.70532	1575
733.95856	1599
734.21179	1626
734.46497	1549
734.7182	1554
734.97137	1545
735.22455	1535
735.47772	1550
735.7309	1534
735.98407	1505
736.23724	1515
736.49036	1517
736.74353	1476
736.99664	1453
737.24976	1561
737.50287	1484
737.75598	1492
738.00909	1401
738.26221	1485
738.51526	1458
738.76837	1486
739.02142	1407
739.27448	1387
739.52753	1398
739.78058	1420
740.03363	1383
740.28662	1372
740.53967	1392
740.79266	1391
741.04565	1373
741.29865	1387
741.55164	1386
741.80463	1410
742.05762	1337
742.31055	1376
742.56354	1336
742.81647	1334
743.0694	1317
743.32233	1365
743.57526	1368
743.82819	1277
744.08105	1306
744.33398	1321
744.58685	1268
744.83978	1277
745.09265	1249
745.34552	1248
745.59839	1277
745.8512	1185
746.10406	1285
746.35687	1252
746.60974	1219
746.86255	1200
747.11536	1211
747.36816	1201
747.62091	1189
747.87372	1220
748.12653	1228
748.37927	1215
748.63202	1227
748.88477	1167
749.13751	1209
749.39026	1212
749.64301	1212
749.89569	1132
750.14844	1212
750.40112	1149
750.65381	1170
750.90649	1143
751.15918	1065
751.41187	1137
751.66455	1067
751.91718	1144
752.16986	1105
752.42249	1153
752.67511	1093
752.92773	1139
753.18036	1132
753.43292	1088
753.68555	1129
753.93811	1074
754.19073	1071
754.4433	1030
754.69586	1066
754.94843	1067
755.20093	1019
755.45349	1089
755.70599	1044
755.95856	1015
756.21106	1010
756.46356	1088
756.71606	1046
756.96857	1070
757.22101	993
757.47351	989
757.72595	1008
757.97845	994
758.2309	1028
758.48334	1049
758.73572	1018
758.98816	1066
759.2406	958
759.49298	957
759.74536	987
759.9978	991
760.25018	964
760.5025	926
760.75488	943
761.00726	1021
761.25958	955
761.51196	923
761.76428	1005
762.0166	926
762.26892	892
762.52118	911
762.7735	883
763.02582	935
763.27808	925
763.53033	913
763.78259	914
764.03485	888
764.28711	913
764.53937	900
764.79156	934
765.04376	918
765.29602	882
765.54822	904
765.80042	857
766.05261	863
766.30475	815
766.55695	860
766.80908	869
767.06122	847
767.31342	899
767.56549	848
767.81763	844
768.06976	847
768.3219	831
768.57397	867
768.82605	899
769.07813	848
769.3302	866
769.58228	853
769.83435	850
770.08643	825
770.33844	833
770.59045	804
770.84247	854
771.09448	818
771.3465	783
771.59851	827
771.85052	793
772.10248	795
772.35443	829
772.60645	790
772.8584	810
773.11029	785
773.36224	747
773.6142	730
773.86609	819
774.11798	729
774.36993	766
774.62183	739
774.87372	804
775.12555	754
775.37744	768
775.62927	831
775.88116	763
776.133	700
776.38483	718
776.63666	765
776.88843	730
777.14026	727
777.39203	745
777.64386	727
777.89563	701
778.1474	718
778.39917	719
778.65094	711
778.90265	739
779.15442	725
779.40613	671
779.65784	696
779.90955	717
780.16125	690
780.41296	708
780.66461	717
780.91632	673
781.16797	666
781.41962	701
781.67126	659
781.92291	659
782.17456	663
782.42615	642
782.6778	715
782.92938	653
783.18097	656
783.43256	659
783.68414	678
783.93567	649
784.18726	674
784.43878	691
784.69037	716
784.94189	646
785.19342	608
785.44495	641
785.69641	645
785.94794	618
786.1994	671
786.45087	616
786.70233	599
786.9538	645
787.20526	632
787.45673	605
787.70813	617
787.95959	606
788.211	641
788.4624	660
788.71381	604
788.96515	620
789.21655	624
789.46796	633
789.7193	591
789.97064	619
790.22198	615
790.47333	633
790.72467	586
790.97595	609
791.22729	637
791.47858	583
791.72986	579
791.98114	561
792.23242	584
792.48364	574
792.73492	615
792.98615	585
793.23743	624
793.48865	600
793.73987	610
793.99103	550
794.24225	593
794.49347	593
794.74463	581
794.99579	565
795.24695	582
795.49811	567
795.74927	529
796.00037	596
796.25153	588
796.50262	571
796.75372	592
797.00482	585
797.25592	575
797.50702	600
797.75806	583
798.00916	518
798.26019	539
798.51123	541
798.76227	552
799.01331	581
799.26428	533
799.51532	520
799.7663	557
800.01727	537
800.26825	564
800.51923	546
800.7702	555
801.02118	548
801.27209	549
801.52301	489
801.77393	502
802.02484	543
802.27576	522
802.52667	523
802.77753	514
803.02844	530
803.2793	547
803.53015	520
803.78101	529
804.03186	511
804.28265	495
804.53351	552
804.7843	521
805.0351	517
805.28589	492
805.53668	498
805.78748	523
806.03821	505
806.28894	500
806.53973	539
806.79047	516
807.0412	495
807.29187	509
807.5426	538
807.79327	494
808.04401	504
808.29468	530
808.54535	506
808.79602	479
809.04663	501
809.2973	489
809.54791	489
809.79852	482
810.04913	504
810.29974	478
810.55035	495
810.80096	544
811.05151	483
811.30206	486
811.55267	504
811.80322	454
812.05371	466
812.30426	495
812.55481	510
812.8053	489
813.05579	488
813.30627	469
813.55676	459
813.80725	509
814.05768	496
814.30817	448
814.55859	492
814.80902	486
815.05945	479
815.30988	493
815.56024	439
815.81067	479
816.06104	492
816.3114	479
816.56177	472
816.81213	482
817.0625	466
817.31281	479
817.56317	451
817.81348	459
818.06378	458
818.31409	459
818.56439	440
818.81464	467
819.06494	463
819.31519	492
819.56543	439
819.81567	453
820.06592	441
820.31616	451
820.56635	457
820.81653	494
821.06671	455
821.31689	476
821.56708	453
821.81726	464
822.06744	438
822.31757	442
822.56769	438
822.81781	469
823.06793	468
823.31805	439
823.56812	462
823.81824	465
824.0683	468
824.31836	474
824.56842	425
824.81848	460
825.06848	449
825.31854	474
825.56854	427
825.81854	447
826.06854	423
826.31854	458
826.56854	443
826.81848	472
827.06848	416
827.31842	442
827.56836	445
827.8183	459
828.06818	402
828.31812	464
828.56799	408
828.81787	433
829.06775	413
829.31763	468
829.5675	442
829.81738	432
830.0672	439
830.31702	457
830.56683	431
830.81665	441
831.06647	420
831.31628	464
831.56604	437
831.8158	400
832.06555	442
832.31531	421
832.56506	425
832.81482	420
833.06451	440
833.31421	409
833.56396	430
833.8136	450
834.06329	435
834.31299	450
834.56262	405
834.81232	432
835.06195	434
835.31158	429
835.56122	411
835.81079	438
836.06042	422
836.31	475
836.55957	419
836.80914	430
837.05872	411
837.30829	423
837.5578	403
837.80737	439
838.05688	421
838.3064	406
838.55591	434
838.80536	408
839.05487	425
839.30432	447
839.55377	419
839.80322	446
840.05267	405
840.30212	377
840.55151	410
840.80096	441
841.05035	419
841.29974	412
841.54913	402
841.79852	417
842.04785	387
842.29724	421
842.54657	409
842.7959	386
843.04523	389
843.29449	399
843.54382	384
843.79309	415
844.04236	404
844.29169	416
844.54089	403
844.79016	396
845.03943	388
845.28864	412
845.53784	388
845.78705	399
