Date and Time:                Wed May 15 14:34:17.244 2024
Software Version:             4.30.30000.0
Temperature (C):              -90
Model:                        DU971P_UVB
Data Type:                    Counts
Acquisition Mode:             Single Scan
Trigger Mode:                 Internal
Exposure Time (secs):         1
Readout Mode:                 Full Vertical Binning
Horizontal binning:           1
Extended Dynamic Range:       off
Horizontally flipped:         false
Vertical Shift Speed (usecs): 9.68
Pixel Readout Rate (MHz):     3
Baseline Clamp:               ON
Clock Amplitude:              Normal
Output Amplifier:             Conventional
Serial Number:                20367
Pre-Amplifier Gain:           4x
Spurious Noise Filter Mode:   No Filter
Photon counted:               false
Data Averaging Filter Mode:   No Filter
SR193i:
Serial Number:                SR-2646
Wavelength (nm):              630
Grating Groove Density (l/mm):300
Grating Blaze:                500nm
Input Side Slit Width (um):   1000



417.6445	60387
417.9035	60870
418.16251	61233
418.42151	61265
418.68048	61234
418.93948	61277
419.19846	61279
419.45746	61263
419.71643	61309
419.97543	61307
420.23441	61313
420.49341	61299
420.75238	61325
421.01135	61375
421.27032	61357
421.5293	61372
421.78827	61546
422.04724	65535
422.30621	65535
422.56519	65535
422.82416	65535
423.08313	0
423.34207	0
423.60104	0
423.85999	0
424.11896	0
424.3779	0
424.63687	0
424.89581	0
425.15475	0
425.41373	0
425.67267	0
425.93161	0
426.19055	0
426.44949	0
426.70844	0
426.96738	0
427.22629	0
427.48523	0
427.74417	0
428.00308	0
428.26202	0
428.52094	0
428.77988	0
429.03879	0
429.2977	0
429.55664	0
429.81555	0
430.07446	0
430.33337	0
430.59229	0
430.8512	0
431.11011	0
431.36899	0
431.6279	0
431.88681	0
432.14569	0
432.4046	0
432.66348	0
432.92239	0
433.18127	0
433.44016	0
433.69907	0
433.95795	0
434.21683	0
434.47571	0
434.73459	0
434.99347	0
435.25232	0
435.5112	0
435.77008	0
436.02896	0
436.28781	0
436.54669	0
436.80554	0
437.06439	0
437.32327	0
437.58212	0
437.84097	0
438.09982	0
438.35867	0
438.61752	0
438.87637	0
439.13522	0
439.39404	0
439.65289	0
439.91174	0
440.17056	0
440.42941	0
440.68823	0
440.94705	0
441.20587	0
441.46472	0
441.72354	0
441.98236	0
442.24118	0
442.5	0
442.75879	0
443.01761	0
443.27643	0
443.53522	0
443.79404	0
444.05283	0
444.31165	0
444.57043	0
444.82922	0
445.08801	0
445.34683	0
445.60562	0
445.86441	0
446.12317	0
446.38196	0
446.64075	0
446.89954	0
447.15829	0
447.41708	0
447.67584	0
447.9346	0
448.19339	0
448.45215	0
448.71091	0
448.96967	0
449.22842	0
449.48718	31653
449.74594	24674
450.00467	61603
450.26343	60645
450.52219	60128
450.78091	59830
451.03967	59598
451.2984	59205
451.55713	58791
451.81589	58421
452.07462	57759
452.33334	57474
452.59207	57102
452.8508	56132
453.1095	55356
453.36823	54944
453.62695	53998
453.88565	53573
454.14438	52756
454.40308	52317
454.6618	51131
454.9205	50854
455.1792	50065
455.4379	49360
455.69659	49431
455.95529	48868
456.21399	47905
456.47269	47623
456.73138	46641
456.99005	46900
457.24875	46258
457.50742	45515
457.76611	45448
458.02478	45130
458.28345	44254
458.54211	43898
458.80078	43820
459.05945	43729
459.31812	43080
459.57678	43348
459.83545	42420
460.09409	42593
460.35275	42158
460.61139	42023
460.87006	41480
461.12869	41385
461.38733	41557
461.64597	41353
461.9046	41217
462.16324	41095
462.42188	40485
462.68051	40358
462.93915	40480
463.19775	40059
463.45639	40195
463.715	40098
463.97363	39993
464.23224	40163
464.49084	40236
464.74945	39658
465.00806	39821
465.26666	39848
465.52527	39501
465.78387	39704
466.04248	39132
466.30106	39511
466.55966	39292
466.81824	39538
467.07684	39070
467.33542	39055
467.59399	39459
467.85257	39778
468.11115	39307
468.36972	39331
468.6283	39562
468.88684	39940
469.14542	39742
469.40399	39745
469.66254	39896
469.92108	39985
470.17966	39643
470.4382	40283
470.69675	39970
470.95529	39539
471.21384	40035
471.47238	40149
471.7309	39909
471.98944	40402
472.24799	40167
472.5065	40508
472.76501	40032
473.02356	40356
473.28207	40513
473.54059	40389
473.7991	40475
474.05762	40503
474.31613	40816
474.57462	40650
474.83313	40465
475.09161	40556
475.35013	40544
475.60861	40646
475.8671	41195
476.12561	40457
476.38409	40735
476.64258	41052
476.90106	40805
477.15952	41080
477.418	40745
477.67648	40993
477.93494	40617
478.19339	40835
478.45187	40691
478.71033	41175
478.96878	40918
479.22723	41238
479.48569	40978
479.74414	40902
480.00259	40497
480.26102	40621
480.51947	40783
480.77789	41264
481.03635	40953
481.29477	40957
481.55319	40943
481.81161	40737
482.07004	40634
482.32846	40363
482.58688	40976
482.84528	40732
483.1037	40212
483.36209	40569
483.62051	40617
483.87891	40351
484.1373	40241
484.39569	40168
484.65408	40471
484.91248	39665
485.17087	40145
485.42923	40403
485.68762	39966
485.94598	39835
486.20438	39879
486.46274	39613
486.7211	39524
486.97946	39700
487.23782	39409
487.49619	39351
487.75455	39772
488.01291	39717
488.27124	39260
488.5296	39321
488.78793	38978
489.04626	39431
489.3046	39379
489.56293	39425
489.82126	39333
490.07959	39137
490.33792	39030
490.59622	38952
490.85455	38823
491.11285	38886
491.37119	38895
491.62949	39106
491.88779	39011
492.14609	39171
492.40439	38658
492.66269	38437
492.92096	38563
493.17926	38758
493.43756	38754
493.69583	38478
493.9541	38371
494.21237	38756
494.47064	38132
494.72891	38105
494.98718	38082
495.24545	37986
495.50372	38186
495.76196	38289
496.0202	38108
496.27847	38077
496.53671	37879
496.79495	38004
497.05319	38162
497.31143	38025
497.56967	37673
497.82788	38110
498.08612	37538
498.34433	37565
498.60257	37329
498.86078	37967
499.11899	38023
499.3772	37481
499.63541	37351
499.89362	37495
500.15179	37354
500.41	37565
500.66818	36760
500.92639	37611
501.18457	37344
501.44275	37015
501.70093	36743
501.95911	37496
502.21729	37048
502.47546	36887
502.73361	36976
502.99179	36752
503.24994	36859
503.50809	36537
503.76624	36806
504.02438	36660
504.28253	36509
504.54068	36416
504.79883	36118
505.05695	36185
505.31509	36088
505.57321	36346
505.83133	35980
506.08945	36479
506.34756	36184
506.60568	36507
506.8638	35942
507.12192	36103
507.38	35771
507.63812	35657
507.89621	35832
508.1543	35854
508.41238	35655
508.67047	35765
508.92856	35547
509.18665	35391
509.4447	35721
509.70279	35349
509.96085	35403
510.2189	35138
510.47699	35521
510.73505	35506
510.9931	35488
511.25113	35609
511.50919	35487
511.76724	35103
512.02527	35179
512.28333	34565
512.54132	34680
512.79938	34816
513.05737	34440
513.31543	34847
513.57343	34820
513.83142	34902
514.08948	34618
514.34747	34547
514.60547	34154
514.86346	34477
515.12146	34622
515.37946	34359
515.63745	34352
515.89545	34374
516.15338	33791
516.41138	33771
516.66937	34319
516.92731	33885
517.1853	33803
517.44324	34012
517.70123	33599
517.95917	33829
518.2171	33629
518.4751	33593
518.73303	33068
518.99097	33677
519.2489	33247
519.50684	33075
519.76477	33341
520.02271	32981
520.28058	32793
520.53851	32887
520.79645	32685
521.05432	32944
521.31226	32764
521.57013	32601
521.82806	32603
522.08594	32388
522.34381	32169
522.60175	32495
522.85962	32435
523.11749	32335
523.37537	32256
523.63324	32167
523.89111	31966
524.14899	31834
524.40686	32166
524.66467	31698
524.92255	31525
525.18036	31477
525.43823	31030
525.69604	31478
525.95392	31311
526.21173	31524
526.4696	30901
526.72742	31040
526.98523	30829
527.24304	31146
527.50085	31179
527.75867	30783
528.01648	30458
528.27429	30992
528.53204	30801
528.78986	30611
529.04767	30500
529.30542	30458
529.56323	30478
529.82098	30128
530.0788	30111
530.33655	30218
530.5943	30209
530.85205	29992
531.10986	30263
531.36761	30261
531.62537	30317
531.88312	29564
532.14081	29996
532.39856	29751
532.65631	29721
532.91406	29663
533.17175	29603
533.4295	29320
533.68719	29263
533.94495	29397
534.20264	28941
534.46033	29063
534.71802	29372
534.97571	28828
535.2334	28981
535.49109	28674
535.74878	28798
536.00647	28940
536.26416	28868
536.52185	28832
536.77948	28451
537.03717	28515
537.29486	28622
537.55249	28300
537.81012	28267
538.06781	28276
538.32544	27793
538.58307	28066
538.8407	28001
539.09833	27690
539.35596	28198
539.61359	27414
539.87122	27845
540.12885	27600
540.38647	27295
540.64404	27157
540.90167	27408
541.15924	27208
541.41687	27085
541.67444	26999
541.93201	27214
542.18964	26659
542.4472	26914
542.70477	26701
542.96234	26634
543.21991	26591
543.47748	26566
543.73499	26287
543.99255	26606
544.25012	26547
544.50763	26291
544.7652	26374
545.02271	26194
545.28027	26062
545.53778	26265
545.79529	25890
546.05286	25977
546.31036	25708
546.56787	25735
546.82538	25878
547.08289	25639
547.34033	25735
547.59784	25761
547.85535	25692
548.11279	25430
548.3703	25128
548.62775	25451
548.88525	25426
549.1427	25524
549.40015	25237
549.65765	24811
549.9151	24713
550.17255	24770
550.42999	25036
550.68744	24794
550.94482	24948
551.20227	24720
551.45972	24764
551.7171	24300
551.97455	24551
552.23193	24513
552.48938	24469
552.74677	24290
553.00415	24471
553.2616	24264
553.51898	24261
553.77637	24286
554.03375	24021
554.29114	23925
554.54846	23920
554.80585	23672
555.06323	23694
555.32056	23811
555.57794	23671
555.83527	23582
556.09265	23392
556.34998	23325
556.6073	23303
556.86462	22840
557.12195	23289
557.37927	23479
557.6366	23077
557.89392	22801
558.15125	22668
558.40857	23000
558.66583	22938
558.92316	22828
559.18042	22690
559.43774	22677
559.69501	22287
559.95227	22458
560.20953	22390
560.4668	22537
560.72406	22153
560.98132	22243
561.23859	22272
561.49585	22514
561.75311	22240
562.01031	21859
562.26758	21945
562.52478	21911
562.78204	22198
563.03925	21792
563.29651	21966
563.55371	21648
563.81091	21478
564.06812	21895
564.32532	21551
564.58252	21674
564.83966	21442
565.09686	21259
565.35406	21272
565.61121	21192
565.86841	21086
566.12555	21224
566.38275	21127
566.63989	21052
566.89703	21072
567.15417	20759
567.41132	20594
567.66846	20915
567.9256	20857
568.18274	20528
568.43988	20451
568.69696	20590
568.9541	20689
569.21118	20688
569.46832	20205
569.7254	20425
569.98248	20532
570.23956	20091
570.4967	20133
570.75378	19956
571.01086	20100
571.26788	20188
571.52496	20286
571.78204	19906
572.03906	20006
572.29614	19975
572.55316	19619
572.81024	19493
573.06726	19572
573.32428	19405
573.58136	19568
573.83838	19551
574.0954	19509
574.35236	19077
574.60938	18952
574.86639	19466
575.12341	19186
575.38037	19126
575.63739	19294
575.89435	18906
576.15137	19121
576.40833	18756
576.66528	18969
576.92224	19138
577.1792	18611
577.43616	19022
577.69312	18816
577.95007	18584
578.20697	18638
578.46393	18884
578.72089	18630
578.97778	18922
579.23468	18565
579.49164	18599
579.74854	18564
580.00543	18536
580.26233	18294
580.51923	18353
580.77612	18224
581.03302	18272
581.28986	18305
581.54675	18156
581.80359	18159
582.06049	18132
582.31732	17747
582.57422	17922
582.83105	18183
583.08789	18172
583.34473	17632
583.60156	17886
583.8584	17843
584.11523	17755
584.37201	17685
584.62885	17575
584.88568	17485
585.14246	17618
585.39923	17692
585.65607	17439
585.91284	17678
586.16962	17494
586.42639	17422
586.68317	17367
586.93994	17430
587.19672	17148
587.45343	17281
587.71021	17252
587.96698	17010
588.22369	17239
588.48041	16969
588.73718	16778
588.9939	16904
589.25061	16797
589.50732	16894
589.76404	16825
590.02075	16737
590.27747	16944
590.53412	16769
590.79083	16636
591.04755	16487
591.3042	16460
591.56085	16417
591.81757	16507
592.07422	16499
592.33087	16406
592.58752	16550
592.84418	16426
593.10083	16164
593.35742	16147
593.61407	16057
593.87073	16063
594.12732	16162
594.38391	16106
594.64056	16050
594.89716	16259
595.15375	16111
595.41034	15888
595.66693	15932
595.92352	15674
596.18011	15682
596.43671	15823
596.69324	15835
596.94983	15769
597.20636	15563
597.46289	15909
597.71948	15530
597.97601	15503
598.23254	15499
598.48907	15741
598.74561	15630
599.00214	15510
599.25861	15358
599.51514	15644
599.77167	15250
600.02814	15058
600.28461	15551
600.54114	15289
600.79761	15214
601.05408	15195
601.31055	15038
601.56702	15083
601.82349	14930
602.07996	15146
602.33636	14980
602.59283	15070
602.84924	15086
603.10571	14730
603.36212	14661
603.61853	14879
603.87494	14653
604.13135	14747
604.38776	14594
604.64417	14650
604.90057	14747
605.15698	14533
605.41333	14687
605.66974	14785
605.92609	14628
606.1825	14610
606.43884	14491
606.69519	14294
606.95154	14353
607.20789	14686
607.46423	14373
607.72058	14329
607.97687	14409
608.23322	14254
608.4895	14074
608.74585	13944
609.00214	14195
609.25842	14163
609.51471	14287
609.771	14070
610.02728	14054
610.28357	14192
610.53986	13978
610.79614	14070
611.05237	14119
611.30865	13955
611.56488	14105
611.82111	13632
612.07739	13725
612.33362	13681
612.58984	13837
612.84607	13756
613.10223	13558
613.35846	13696
613.61469	13662
613.87085	13713
614.12708	13635
614.38324	13474
614.63947	13517
614.89563	13512
615.15179	13559
615.40796	13367
615.66412	13497
615.92023	13283
616.17639	13526
616.43256	13436
616.68866	13417
616.94482	13372
617.20093	13239
617.45703	13343
617.71313	13198
617.9693	13106
618.22534	13248
618.48145	12940
618.73755	12844
618.99365	13159
619.24969	13185
619.5058	12970
619.76184	13228
620.01788	13009
620.27399	12934
620.53003	12847
620.78607	12851
621.04211	12951
621.2981	12847
621.55414	12743
621.81018	12762
622.06616	13050
622.3222	12589
622.57819	12725
622.83417	12549
623.09015	12573
623.34613	12369
623.60211	12553
623.85809	12417
624.11407	12556
624.37006	12476
624.62598	12452
624.88196	12574
625.13788	12372
625.3938	12555
625.64972	12207
625.9057	12394
626.16162	12194
626.41748	12319
626.6734	12380
626.92932	12327
627.18518	12120
627.4411	12096
627.69696	12108
627.95288	12234
628.20874	11888
628.4646	12128
628.72046	12089
628.97632	12172
629.23218	12022
629.48798	12126
629.74384	11780
629.99963	12130
630.25549	12012
630.51129	11954
630.76709	12144
631.02289	11978
631.27869	11970
631.53448	11957
631.79028	12013
632.04608	11928
632.30182	11553
632.55762	11727
632.81335	11803
633.06915	11756
633.32489	11589
633.58063	11652
633.83636	11723
634.0921	11785
634.34784	11519
634.60352	11502
634.85925	11697
635.11493	11590
635.37067	11751
635.62634	11585
635.88202	11410
636.1377	11375
636.39337	11594
636.64905	11242
636.90472	11284
637.1604	11471
637.41602	11288
637.67169	11352
637.92731	11263
638.18298	11325
638.4386	11315
638.69421	11176
638.94983	11175
639.20544	11172
639.46106	11094
639.71661	11137
639.97223	11003
640.22778	11008
640.4834	11066
640.73895	10855
640.99451	10889
641.25006	11104
641.50562	10960
641.76117	11059
642.01672	10677
642.27222	10833
642.52777	10638
642.78326	10910
643.03882	10732
643.29431	10676
643.5498	10803
643.8053	10791
644.06079	10603
644.31628	10735
644.57178	10581
644.82721	10620
645.0827	10612
645.33813	10731
645.59357	10315
645.84906	10538
646.10449	10677
646.35992	10743
646.61536	10406
646.87073	10376
647.12616	10409
647.38159	10372
647.63696	10282
647.8924	10404
648.14777	10225
648.40314	10309
648.65851	10190
648.91388	10241
649.16925	9969
649.42462	10092
649.67993	10343
649.9353	10127
650.19061	10069
650.44592	10144
650.70129	10017
650.9566	10219
651.21191	9980
651.46722	10247
651.72247	10076
651.97778	10038
652.23309	10007
652.48834	9779
652.74365	9809
652.9989	9907
653.25415	9944
653.5094	9844
653.76465	9772
654.0199	9820
654.27509	9473
654.53033	9588
654.78558	9615
655.04077	9547
655.29596	9654
655.55115	9690
655.80634	9517
656.06152	9355
656.31671	9515
656.5719	9437
656.82709	9373
657.08221	9547
657.3374	9364
657.59253	9384
657.84766	9355
658.10278	9320
658.35791	9218
658.61304	9333
658.86816	9080
659.12329	9123
659.37836	9098
659.63348	9235
659.88855	9000
660.14362	9101
660.39868	9047
660.65375	9052
660.90881	9037
661.16388	9305
661.41895	9227
661.67395	9026
661.92902	8987
662.18402	9033
662.43903	8937
662.69403	8967
662.94904	8801
663.20404	8889
663.45905	8815
663.71405	8719
663.96899	8726
664.224	8774
664.47894	8693
664.73395	8570
664.98889	8655
665.24384	8651
665.49878	8685
665.75366	8500
666.00861	8706
666.26355	8413
666.51843	8530
666.77338	8471
667.02826	8466
667.28314	8566
667.53802	8475
667.79291	8267
668.04779	8344
668.30261	8353
668.5575	8277
668.81232	8249
669.0672	8367
669.32202	8334
669.57684	8132
669.83167	8183
670.08649	8127
670.34131	8202
670.59613	8202
670.85089	8241
671.10571	7910
671.36047	8095
671.61523	8003
671.87	8150
672.12476	8046
672.37952	8178
672.63428	8166
672.88904	7898
673.14374	8006
673.3985	7770
673.6532	8110
673.9079	7828
674.1626	7858
674.4173	7868
674.672	7870
674.9267	7780
675.1814	7848
675.43604	7868
675.69073	7556
675.94537	7728
676.20001	7866
676.45465	7628
676.70929	7750
676.96393	7641
677.21857	7533
677.47314	7625
677.72778	7692
677.98236	7608
678.23694	7556
678.49158	7572
678.74615	7620
679.00067	7484
679.25525	7450
679.50983	7541
679.7644	7291
680.01892	7546
680.27344	7539
680.52802	7478
680.78253	7348
681.03705	7384
681.29156	7284
681.54602	7255
681.80054	7422
682.05499	7257
682.30951	7378
682.56396	7341
682.81842	7398
683.07288	7368
683.32733	7012
683.58179	7244
683.83624	7212
684.0907	7155
684.34509	7029
684.59949	7219
684.85394	7117
685.10834	7012
685.36273	7078
685.61713	7172
685.87146	7036
686.12585	7096
686.38025	6875
686.63458	6954
686.88892	6877
687.14325	6819
687.39764	6929
687.65192	6782
687.90625	6814
688.16058	7035
688.41492	6875
688.66919	6964
688.92346	6675
689.1778	6652
689.43207	6894
689.68634	6776
689.94061	6743
690.19482	6706
690.4491	6742
690.70331	6585
690.95758	6605
691.21179	6758
691.466	6656
691.72021	6676
691.97443	6752
692.22864	6719
692.48285	6693
692.737	6495
692.99121	6713
693.24536	6442
693.49951	6544
693.75366	6491
694.00781	6452
694.26196	6505
694.51611	6518
694.7702	6410
695.02435	6501
695.27844	6478
695.53253	6484
695.78668	6319
696.04077	6324
696.2948	6334
696.54889	6446
696.80298	6384
697.05701	6367
697.3111	6313
697.56512	6309
697.81915	6351
698.07318	6266
698.32721	6302
698.58124	6132
698.83521	6290
699.08923	6334
699.3432	6131
699.59723	6246
699.8512	6150
700.10516	6113
700.35913	6059
700.61304	6171
700.867	6300
701.12097	6186
701.37488	6212
701.62878	6277
701.88275	6191
702.13666	6121
702.3905	6083
702.64441	6113
702.89832	6071
703.15222	6052
703.40607	6108
703.65991	6058
703.91376	6220
704.1676	5963
704.42145	5964
704.67529	5935
704.92914	5949
705.18292	5942
705.43677	6011
705.69055	5972
705.94434	5839
706.19812	5861
706.4519	5939
706.70569	5936
706.95947	5905
707.2132	5981
707.46698	5795
707.7207	5856
707.97443	5808
708.22815	5699
708.48187	5886
708.7356	5869
708.98932	5643
709.24298	5653
709.4967	5680
709.75037	5782
710.00403	5630
710.25769	5782
710.51135	5661
710.76501	5747
711.01868	5657
711.27228	5722
711.52594	5732
711.77954	5533
712.03314	5621
712.28674	5750
712.54034	5557
712.79395	5745
713.04755	5738
713.30109	5648
713.55469	5427
713.80823	5618
714.06177	5707
714.31531	5676
714.56885	5547
714.82239	5571
715.07587	5525
715.32941	5602
715.58289	5443
715.83643	5538
716.0899	5440
716.34338	5487
716.59686	5632
716.85028	5299
717.10376	5603
717.35718	5576
717.61066	5452
717.86407	5429
718.11749	5412
718.37091	5360
718.62433	5369
718.87775	5531
719.1311	5316
719.38452	5464
719.63788	5495
719.89124	5407
720.14459	5338
720.39795	5420
720.65131	5336
720.90466	5379
721.15796	5335
721.41132	5482
721.66461	5256
721.91791	5323
722.1712	5363
722.4245	5404
722.6778	5222
722.93103	5324
723.18433	5224
723.43756	5390
723.6908	5249
723.94409	5368
724.19733	5335
724.4505	5324
724.70374	5254
724.95697	5238
725.21014	5328
725.46338	5159
725.71655	5156
725.96973	5211
726.2229	5185
726.47607	5278
726.72919	5302
726.98236	5263
727.23547	5206
727.48859	5144
727.74176	5067
727.99487	5156
728.24792	5116
728.50104	5066
728.75415	5127
729.0072	5183
729.26031	5100
729.51337	5191
729.76642	5199
730.01947	4982
730.27252	5213
730.52551	5091
730.77856	5190
731.03156	5086
731.28461	5035
731.5376	4994
731.79059	5042
732.04358	5040
732.29651	5103
732.5495	5017
732.80243	5153
733.05542	4990
733.30835	5041
733.56128	5052
733.81421	5070
734.06714	5056
734.32001	5124
734.57294	5103
734.82581	5072
735.07874	4986
735.3316	5014
735.58447	5124
735.83734	5088
736.09015	4945
736.34302	4977
736.59583	4951
736.84869	4953
737.1015	4980
737.35431	4925
737.60712	4938
737.85992	4923
738.11267	4929
738.36548	4906
738.61823	4743
738.87103	4888
739.12378	4909
739.37653	4850
739.62921	4793
739.88196	4885
740.1347	4950
740.38739	4938
740.64008	4923
740.89282	4870
741.14551	4957
741.39813	4866
741.65082	4898
741.9035	4825
742.15613	4664
742.40881	4876
742.66144	4880
742.91406	4976
743.16669	4909
743.41925	4748
743.67188	4858
743.9245	4803
744.17706	4812
744.42963	4812
744.68219	4786
744.93475	4716
745.18732	4814
745.43988	4829
745.69238	4728
745.94495	4756
746.19745	4658
746.44995	4753
746.70245	4838
746.95496	4824
747.20746	4820
747.4599	4705
747.7124	4757
747.96484	4788
748.21729	4753
748.46973	4672
748.72217	4621
748.97461	4498
749.22699	4561
749.47943	4841
749.73181	4520
749.98419	4728
750.23657	4689
750.48895	4620
750.74133	4769
750.99365	4687
751.24603	4619
751.49835	4552
751.75067	4702
752.00299	4540
752.25531	4617
752.50763	4584
752.75995	4745
753.01221	4569
753.26453	4669
753.51678	4550
753.76904	4538
754.0213	4596
754.2735	4578
754.52576	4417
754.77802	4585
755.03021	4659
755.28241	4627
755.53461	4632
755.7868	4558
756.039	4548
756.2912	4647
756.54333	4540
756.79547	4496
757.04767	4462
757.2998	4477
757.55194	4531
757.80408	4557
758.05615	4463
758.30829	4653
758.56036	4556
758.81244	4422
759.06451	4526
759.31659	4378
759.56866	4575
759.82074	4455
760.07275	4636
760.32483	4400
760.57684	4417
760.82886	4432
761.08087	4398
761.33289	4622
761.58484	4585
761.83685	4371
762.08881	4497
762.34076	4484
762.59271	4476
762.84467	4327
763.09662	4440
763.34857	4455
763.60046	4345
763.85242	4515
764.10431	4414
764.3562	4523
764.60809	4404
764.85999	4432
765.11182	4517
765.36371	4509
765.61554	4328
765.86737	4341
766.1192	4409
766.37103	4557
766.62286	4476
766.87463	4418
767.12646	4327
767.37823	4360
767.63	4373
767.88177	4412
768.13354	4420
768.38531	4402
768.63708	4407
768.88879	4327
769.1405	4308
769.39221	4495
769.64392	4355
769.89563	4453
770.14734	4490
770.39905	4441
770.6507	4441
770.90234	4247
771.15399	4364
771.40564	4287
771.65729	4386
771.90894	4110
772.16052	4475
772.41217	4182
772.66376	4213
772.91534	4187
773.16693	4370
773.41852	4367
773.67004	4166
773.92163	4188
774.17316	4270
774.42468	4344
774.67627	4308
774.92773	4202
775.17926	4335
775.43079	4279
775.68225	4339
775.93378	4244
776.18524	4301
776.43671	4322
776.68817	4313
776.93958	4242
777.19104	4291
777.44244	4258
777.69391	4226
777.94531	4186
778.19672	4194
778.44806	4210
778.69946	4178
778.95087	4127
779.20221	4225
779.45355	4104
779.7049	4111
779.95624	4160
780.20758	4226
780.45892	4274
780.71021	4281
780.96149	4172
781.21277	4164
781.46405	4163
781.71533	4143
781.96661	4128
782.2179	4132
782.46912	4156
782.72034	4126
782.97156	4095
783.22278	4173
783.474	4182
783.72522	4324
783.97638	4173
784.2276	4200
784.47876	4040
784.72992	4092
784.98108	4189
785.23218	4198
785.48334	4146
785.7345	4226
785.9856	4278
786.23669	4134
786.48779	4181
786.73889	4192
786.98993	4123
787.24103	4256
787.49207	4074
787.74316	4104
787.9942	4338
788.24518	4230
788.49622	4215
788.74725	4144
788.99823	4239
789.24927	4166
789.50024	4187
789.75122	4477
790.0022	4347
790.25311	4424
790.50409	4445
790.755	4604
791.00592	4397
791.25684	4624
791.50775	4587
791.75867	4652
792.00958	4699
792.26044	4758
792.51129	4931
792.76221	4805
793.01306	5035
793.26385	5114
793.51471	5090
793.76556	5261
794.01636	5288
794.26715	5222
794.51794	5508
794.76874	5600
795.01953	5606
795.27032	5717
795.52106	5717
795.77179	5882
796.02252	5938
796.27325	5932
796.52399	6139
796.77472	6204
797.02539	6165
797.27612	6317
797.52679	6433
797.77747	6541
798.02814	6369
798.27875	6457
798.52942	6612
798.78003	6629
799.0307	6448
799.28131	6655
799.53192	6706
799.78253	6611
800.03308	6628
800.28369	6804
800.53424	6588
800.78479	6753
801.03534	6908
801.28589	6645
801.53644	6785
801.78693	6825
802.03741	6849
802.28796	6792
802.53845	6811
802.78894	6819
803.03937	6839
803.28986	7069
803.54028	6794
803.79077	6835
804.0412	6896
804.29163	7088
804.54199	6785
804.79242	7124
805.04279	6851
805.29321	6841
805.54358	7018
805.79395	6942
806.04431	6785
806.29462	6927
806.54498	6874
806.79529	6777
807.04559	6676
807.2959	6908
807.5462	6831
807.79651	6737
808.04681	6777
808.29706	6704
808.5473	6678
808.79755	6422
809.04779	6688
809.29803	6621
809.54828	6552
809.79846	6444
810.04865	6338
810.29883	6405
810.54901	6329
810.79919	6155
811.04938	6164
811.2995	6175
811.54962	6007
811.7998	6044
812.04993	5900
812.29999	5807
812.55011	5859
812.80023	5805
813.05029	5776
813.30035	5730
813.55042	5719
813.80048	5593
814.05054	5503
814.30054	5503
814.55054	5529
814.8006	5445
815.0506	5273
815.3006	5461
815.55054	5347
815.80054	5271
816.05048	5270
816.30042	5220
816.55042	5137
816.80029	5209
817.05023	5142
817.30017	5106
817.55005	5042
817.79993	5003
818.0498	5081
818.29968	4993
818.54956	4928
818.79944	4999
819.04926	4805
819.29907	4880
819.54895	4825
819.79877	4896
820.04852	4715
820.29834	4710
820.5481	4740
820.79791	4605
821.04767	4548
821.29742	4642
821.54712	4573
821.79688	4709
822.04663	4773
822.29633	4635
822.54602	4550
822.79572	4651
823.04541	4634
823.29504	4564
823.54474	4641
823.79437	4566
824.04401	4590
824.29364	4584
824.54327	4505
824.79291	4570
825.04248	4628
825.29211	4443
825.54169	4491
825.79126	4582
826.04077	4580
